wavelength intensity
190.000000 100.000000
191.000000 100.000000
192.000000 100.000000
193.000000 72.222222
194.000000 62.962963
195.000000 87.654321
196.000000 95.884774
197.000000 98.628258
198.000000 99.542753
199.000000 99.847584
200.000000 99.949195
201.000000 99.983065
202.000000 99.994355
203.000000 99.998118
204.000000 99.999373
205.000000 99.999791
206.000000 122.222120
207.000000 134.944170
208.000000 43.569204
209.000000 13.626738
210.000000 5.506745
211.000000 2.376859
212.000000 1.180930
213.000000 0.698297
214.000000 0.459141
215.000000 0.322385
216.000000 0.228231
217.000000 0.158893
218.000000 0.112668
219.000000 0.089216
220.000000 0.080688
221.000000 0.079020
222.000000 0.079613
223.000000 0.076348
224.000000 0.071366
225.000000 0.067050
226.000000 0.062275
227.000000 0.077457
228.000000 0.097856
229.000000 0.094551
230.000000 0.081048
231.000000 0.065030
232.000000 0.053090
233.000000 0.067178
234.000000 0.091337
235.000000 0.093177
236.000000 0.081778
237.000000 0.073886
238.000000 0.077249
239.000000 0.090699
240.000000 0.144063
241.000000 0.199826
242.000000 0.223026
243.000000 0.256088
244.000000 0.294114
245.000000 0.317989
246.000000 0.312824
247.000000 0.284504
248.000000 0.249434
249.000000 0.208925
250.000000 0.179959
251.000000 0.181782
252.000000 0.200836
253.000000 0.216842
254.000000 0.227088
255.000000 0.228132
256.000000 0.214709
257.000000 0.200134
258.000000 0.574997
259.000000 1.267688
260.000000 2.055781
261.000000 2.992415
262.000000 3.771391
263.000000 4.436951
264.000000 5.108637
265.000000 5.790063
266.000000 6.565465
267.000000 7.350717
268.000000 8.000835
269.000000 8.503858
270.000000 8.814817
271.000000 8.962768
272.000000 9.050583
273.000000 9.009251
274.000000 8.819960
275.000000 8.536472
276.000000 8.172888
277.000000 7.727590
278.000000 7.268569
279.000000 6.722815
280.000000 6.131796
281.000000 5.641225
282.000000 5.146003
283.000000 4.728604
284.000000 4.416145
285.000000 4.132878
286.000000 3.819417
287.000000 3.562128
288.000000 3.391389
289.000000 3.269811
290.000000 3.228996
291.000000 3.293996
292.000000 3.501051
293.000000 3.876810
294.000000 4.363719
295.000000 5.365084
296.000000 6.366148
297.000000 7.178202
298.000000 8.383043
299.000000 9.769969
300.000000 11.377263
301.000000 13.229640
302.000000 15.274195
303.000000 17.361814
304.000000 19.475463
305.000000 21.514155
306.000000 23.348340
307.000000 25.090250
308.000000 26.747372
309.000000 28.170134
310.000000 29.215390
311.000000 29.932994
312.000000 30.537738
313.000000 30.882949
314.000000 31.026883
315.000000 31.005550
316.000000 30.751589
317.000000 30.450659
318.000000 29.961730
319.000000 29.356210
320.000000 28.908484
321.000000 28.508363
322.000000 28.064654
323.000000 27.650966
324.000000 27.138043
325.000000 26.543811
326.000000 25.945484
327.000000 25.595694
328.000000 25.407866
329.000000 25.106354
330.000000 25.015793
331.000000 25.209057
332.000000 25.522080
333.000000 26.079914
334.000000 26.765413
335.000000 27.441177
336.000000 28.269926
337.000000 29.321936
338.000000 30.581581
339.000000 32.018174
340.000000 33.621290
341.000000 35.384696
342.000000 37.295625
343.000000 39.236547
344.000000 41.263406
345.000000 43.471371
346.000000 45.573439
347.000000 47.587015
348.000000 49.467792
349.000000 51.084652
350.000000 52.802660
351.000000 54.105268
352.000000 55.292538
353.000000 57.060015
354.000000 58.713745
355.000000 59.863144
356.000000 60.871196
357.000000 61.728358
358.000000 62.215806
359.000000 62.628110
360.000000 62.909863
361.000000 63.079379
362.000000 63.349278
363.000000 63.638068
364.000000 63.721053
365.000000 63.695144
366.000000 63.379062
367.000000 62.634050
368.000000 62.309293
369.000000 62.305858
370.000000 62.025990
371.000000 61.584825
372.000000 61.198822
373.000000 60.854423
374.000000 60.386696
375.000000 60.021426
376.000000 59.686704
377.000000 59.165683
378.000000 58.775166
379.000000 58.487726
380.000000 57.780379
381.000000 57.069147
382.000000 56.751158
383.000000 56.426704
384.000000 56.187056
385.000000 56.191351
386.000000 56.150093
387.000000 56.048112
388.000000 55.905779
389.000000 55.758538
390.000000 55.608034
391.000000 55.334197
392.000000 55.093784
393.000000 54.873472
394.000000 54.655140
395.000000 54.488365
396.000000 54.433036
397.000000 54.627776
398.000000 54.783691
399.000000 54.514887
400.000000 54.389831
401.000000 54.561740
402.000000 54.602522
403.000000 54.544614
404.000000 54.325447
405.000000 54.167563
406.000000 53.974639
407.000000 53.554484
408.000000 52.997454
409.000000 52.381871
410.000000 51.875968
411.000000 51.570959
412.000000 51.328118
413.000000 50.996536
414.000000 50.568420
415.000000 50.136826
416.000000 49.798127
417.000000 49.342597
418.000000 48.786830
419.000000 48.144317
420.000000 47.262229
421.000000 46.523660
422.000000 45.808738
423.000000 44.760169
424.000000 43.602162
425.000000 42.427829
426.000000 41.227510
427.000000 40.003854
428.000000 38.812807
429.000000 37.581272
430.000000 36.205997
431.000000 34.953907
432.000000 33.724407
433.000000 32.289615
434.000000 30.830902
435.000000 29.399703
436.000000 28.015008
437.000000 26.632257
438.000000 25.287692
439.000000 23.958245
440.000000 22.569242
441.000000 21.184313
442.000000 19.787863
443.000000 18.438633
444.000000 17.077973
445.000000 15.709812
446.000000 14.243008
447.000000 12.771392
448.000000 11.548974
449.000000 10.489774
450.000000 9.404078
451.000000 8.392338
452.000000 7.284576
453.000000 6.084901
454.000000 5.086179
455.000000 4.171741
456.000000 3.369637
457.000000 2.624677
458.000000 1.892669
459.000000 1.103231
460.000000 0.504983
461.000000 0.308172
462.000000 0.240849
463.000000 0.217097
464.000000 0.209647
465.000000 0.207244
466.000000 0.203294
467.000000 0.197853
468.000000 0.193906
469.000000 0.191779
470.000000 0.187230
471.000000 0.177632
472.000000 0.161754
473.000000 0.143554
474.000000 0.136365
475.000000 0.141458
476.000000 0.144360
477.000000 0.143440
478.000000 0.148414
479.000000 0.157124
480.000000 0.158259
481.000000 0.156289
482.000000 0.165213
483.000000 0.182525
484.000000 0.196913
485.000000 0.202611
486.000000 0.203060
487.000000 0.206857
488.000000 0.215650
489.000000 0.225493
490.000000 0.232972
491.000000 0.240118
492.000000 0.246555
493.000000 0.248548
494.000000 0.251498
495.000000 0.256625
496.000000 0.261296
497.000000 0.222573
498.000000 0.167165
499.000000 0.147869
500.000000 0.141577
501.000000 0.139075
502.000000 0.138342
503.000000 0.140594
504.000000 0.143525
505.000000 0.145478
506.000000 0.144339
507.000000 0.139355
508.000000 0.135365
509.000000 0.137411
510.000000 0.143297
511.000000 0.147811
512.000000 0.149525
513.000000 0.147964
514.000000 0.143321
515.000000 0.137438
516.000000 0.132466
517.000000 0.126078
518.000000 0.118009
519.000000 0.117110
520.000000 0.125396
521.000000 0.134302
522.000000 0.134919
523.000000 0.132316
524.000000 0.184989
525.000000 0.746173
526.000000 2.149942
527.000000 4.121546
528.000000 6.662926
529.000000 10.099915
530.000000 14.439388
531.000000 19.155950
532.000000 23.912008
533.000000 28.957021
534.000000 34.536842
535.000000 40.189281
536.000000 45.525675
537.000000 50.593941
538.000000 55.185990
539.000000 59.565823
540.000000 63.535503
541.000000 66.833553
542.000000 70.074980
543.000000 72.988306
544.000000 75.213979
545.000000 77.178151
546.000000 78.596025
547.000000 79.660846
548.000000 81.027785
549.000000 82.229079
550.000000 82.660838
551.000000 82.974257
552.000000 83.675252
553.000000 83.996302
554.000000 84.328806
555.000000 84.827664
556.000000 85.130478
557.000000 85.498132
558.000000 85.975631
559.000000 86.310093
560.000000 86.414772
561.000000 86.569037
562.000000 86.852775
563.000000 86.961769
564.000000 87.190666
565.000000 87.235923
566.000000 87.347195
567.000000 87.715771
568.000000 88.045764
569.000000 88.413112
570.000000 88.510193
571.000000 88.739395
572.000000 88.751161
573.000000 88.447763
574.000000 88.479883
575.000000 88.451526
576.000000 88.248473
577.000000 88.514348
578.000000 88.796815
579.000000 88.716773
580.000000 88.355274
581.000000 88.424468
582.000000 88.583649
583.000000 88.608946
584.000000 88.924684
585.000000 89.184160
586.000000 89.229398
587.000000 88.831468
588.000000 88.620349
589.000000 88.772383
590.000000 88.906936
591.000000 89.175800
592.000000 89.189526
593.000000 88.978347
594.000000 89.022779
595.000000 88.938560
596.000000 88.519264
597.000000 88.285652
598.000000 88.228128
599.000000 88.576117
600.000000 89.234268
601.000000 89.205963
602.000000 89.122824
603.000000 89.132854
604.000000 89.052868
605.000000 89.579597
606.000000 89.882720
607.000000 88.902509
608.000000 88.549270
609.000000 88.147344
610.000000 87.833540
611.000000 88.565564
612.000000 89.519650
613.000000 89.716840
614.000000 89.243101
615.000000 89.199750
616.000000 89.199631
617.000000 89.284157
618.000000 89.160443
619.000000 89.015905
620.000000 88.802724
621.000000 88.966462
622.000000 89.191682
623.000000 89.029525
624.000000 88.985478
625.000000 89.201046
626.000000 89.174230
627.000000 89.247955
628.000000 88.859665
629.000000 88.622414
630.000000 89.048779
631.000000 88.864128
632.000000 88.760942
633.000000 88.766556
634.000000 88.716697
635.000000 88.895023
636.000000 89.038971
637.000000 88.874989
638.000000 88.499973
639.000000 88.410230
640.000000 88.309168
641.000000 88.391768
642.000000 89.000317
643.000000 89.017496
644.000000 88.772060
645.000000 89.083105
646.000000 89.001816
647.000000 88.658408
648.000000 88.481322
649.000000 88.420383
650.000000 88.751897
651.000000 89.113720
652.000000 88.997676
653.000000 89.187491
654.000000 89.304825
655.000000 89.327271
656.000000 89.517390
657.000000 88.827904
658.000000 87.753686
659.000000 87.682875
660.000000 87.977102
661.000000 87.427137
662.000000 87.071474
663.000000 87.149879
664.000000 88.067894
665.000000 88.637759
666.000000 88.345019
667.000000 87.800953
668.000000 87.970784
669.000000 88.490403
670.000000 88.943057
671.000000 88.791402
672.000000 88.902500
673.000000 89.151671
674.000000 89.836675
675.000000 90.690443
676.000000 89.811614
677.000000 89.226802
678.000000 88.644753
679.000000 88.476700
680.000000 88.879166
681.000000 88.759140
682.000000 88.867088
683.000000 89.019782
684.000000 88.617180
685.000000 88.924428
686.000000 89.576072
687.000000 90.169267
688.000000 90.626877
689.000000 90.515684
690.000000 90.112780
691.000000 89.889315
692.000000 90.201373
693.000000 90.449493
694.000000 90.508022
695.000000 90.595824
696.000000 90.161896
697.000000 89.552193
698.000000 89.853125
699.000000 90.591853
700.000000 90.955583
701.000000 90.898231
702.000000 90.420651
703.000000 89.936265
704.000000 89.761771
705.000000 89.574941
706.000000 89.805953
707.000000 90.132620
708.000000 90.065583
709.000000 90.247888
710.000000 89.889990
711.000000 89.442405
712.000000 89.635509
713.000000 89.703294
714.000000 89.347413
715.000000 88.981075
716.000000 88.719672
717.000000 88.676874
718.000000 88.619502
719.000000 88.278601
720.000000 88.199705
721.000000 88.342605
722.000000 88.464115
723.000000 89.007908
724.000000 89.078544
725.000000 88.630940
726.000000 88.673318
727.000000 88.826910
728.000000 88.978693
729.000000 88.471259
730.000000 88.321075
731.000000 88.789545
732.000000 88.429133
733.000000 88.669077
734.000000 89.070576
735.000000 88.932161
736.000000 89.589159
737.000000 89.664520
738.000000 88.584460
739.000000 88.153645
740.000000 88.869137
741.000000 90.382865
742.000000 90.619804
743.000000 89.720393
744.000000 89.444924
745.000000 88.790622
746.000000 88.358336
747.000000 88.196523
748.000000 88.076790
749.000000 89.678342
750.000000 90.799689
751.000000 90.262587
752.000000 89.668973
753.000000 89.031101
754.000000 88.659377
755.000000 88.787289
756.000000 88.816926
757.000000 89.026150
758.000000 89.312040
759.000000 88.932906
760.000000 89.334406
761.000000 89.692895
762.000000 90.144953
763.000000 90.502436
764.000000 90.190105
765.000000 91.103374
766.000000 90.537552
767.000000 89.654409
768.000000 90.481180
769.000000 90.554748
770.000000 89.652870
771.000000 88.563195
772.000000 88.611222
773.000000 91.502971
774.000000 92.883433
775.000000 90.192210
776.000000 89.580278
777.000000 90.059913
778.000000 90.152165
779.000000 91.107474
780.000000 91.459725
781.000000 90.277821
782.000000 88.285795
783.000000 88.289678
784.000000 89.202178
785.000000 88.988407
786.000000 90.328857
787.000000 92.332567
788.000000 91.473274
789.000000 89.848827
790.000000 90.211645
791.000000 89.820344
792.000000 89.018631
793.000000 88.900628
794.000000 88.664077
795.000000 90.208213
796.000000 91.694337
797.000000 91.266818
798.000000 90.419406
799.000000 90.626486
800.000000 92.097949
801.000000 92.318477
802.000000 90.777863
803.000000 91.015152
804.000000 91.641110
805.000000 90.414099
806.000000 90.670065
807.000000 91.096170
808.000000 89.624433
809.000000 89.431869
810.000000 89.699530
811.000000 89.620981
812.000000 90.000306
813.000000 89.813683
814.000000 89.823501
815.000000 89.641157
816.000000 89.343515
817.000000 89.504764
818.000000 89.386020
819.000000 89.930633
820.000000 90.231852
821.000000 89.488579
822.000000 89.160486
823.000000 89.359431
824.000000 89.114218
825.000000 89.184001
826.000000 89.011453
827.000000 87.931087
828.000000 88.205089
829.000000 89.826419
830.000000 90.104092
831.000000 88.952515
832.000000 88.422051
833.000000 87.301150
834.000000 86.714215
835.000000 87.673613
836.000000 88.957112
837.000000 89.808728
838.000000 90.023368
839.000000 89.297798
840.000000 87.896231
841.000000 87.146281
842.000000 87.023954
843.000000 87.601562
844.000000 87.303444
845.000000 87.413336
846.000000 88.132153
847.000000 87.915124
848.000000 88.772558
849.000000 90.144168
850.000000 87.790059
851.000000 84.740327
852.000000 83.584164
853.000000 84.954719
854.000000 88.126807
855.000000 87.662488
856.000000 86.932145
857.000000 86.871900
858.000000 87.291926
859.000000 88.105736
860.000000 88.184243
861.000000 88.509723
862.000000 88.846288
863.000000 88.523555
864.000000 88.082813
865.000000 88.030996
866.000000 87.654552
867.000000 87.844476
868.000000 87.938248
869.000000 86.746669
870.000000 86.008795
871.000000 86.715875
872.000000 86.886931
873.000000 87.186463
874.000000 87.488789
875.000000 86.043590
876.000000 85.845750
877.000000 85.442304
878.000000 85.220562
879.000000 86.212092
880.000000 85.960028
881.000000 85.987175
882.000000 87.057748
883.000000 87.125202
884.000000 86.272939
885.000000 86.514526
886.000000 87.114525
887.000000 87.469307
888.000000 87.530328
889.000000 87.483606
890.000000 86.493929
891.000000 85.380614
892.000000 85.580930
893.000000 86.377586
894.000000 86.486429
895.000000 85.604221
896.000000 84.978239
897.000000 85.718100
898.000000 86.219706
899.000000 85.229061
900.000000 84.730035
901.000000 85.012079
902.000000 85.276555
903.000000 86.228722
904.000000 86.188970
905.000000 85.091164
906.000000 84.768283
907.000000 85.222605
908.000000 85.500626
909.000000 85.437677
910.000000 85.633875
911.000000 85.625647
912.000000 84.661369
913.000000 84.030052
914.000000 83.927197
915.000000 82.945302
916.000000 81.785194
917.000000 81.078486
918.000000 81.143572
919.000000 82.267858
920.000000 82.393249
921.000000 81.335455
922.000000 79.320268
923.000000 79.045145
924.000000 80.666288
925.000000 80.330701
926.000000 80.126184
927.000000 79.839400
928.000000 78.598715
929.000000 77.370008
930.000000 77.181906
931.000000 77.692075
932.000000 76.490181
933.000000 74.459724
934.000000 73.714029
935.000000 72.762124
936.000000 71.152840
937.000000 70.170621
938.000000 69.605548
939.000000 68.878826
940.000000 69.030958
941.000000 68.321140
942.000000 66.886298
943.000000 65.474329
944.000000 63.077310
945.000000 61.857842
946.000000 61.365305
947.000000 61.012875
948.000000 60.381061
949.000000 59.989905
950.000000 59.262186
951.000000 58.819057
952.000000 58.428871
953.000000 58.138299
954.000000 59.638807
955.000000 60.909101
956.000000 58.856056
957.000000 56.177975
958.000000 57.182978
959.000000 57.876665
960.000000 58.209663
961.000000 59.093642
962.000000 58.945465
963.000000 59.000887
964.000000 58.677789
965.000000 58.633015
966.000000 58.528677
967.000000 57.572882
968.000000 57.287528
969.000000 57.546016
970.000000 58.041244
971.000000 58.137031
972.000000 58.192464
973.000000 59.097432
974.000000 61.032986
975.000000 62.086075
976.000000 60.355548
977.000000 59.318476
978.000000 59.416232
979.000000 59.427448
980.000000 59.578161
981.000000 59.433474
982.000000 59.778565
983.000000 60.464867
984.000000 61.243699
985.000000 60.489795
986.000000 59.951936
987.000000 60.547124
988.000000 60.421051
989.000000 61.742486
990.000000 62.530392
991.000000 62.970072
992.000000 64.064871
993.000000 64.639070
994.000000 65.495477
995.000000 64.784091
996.000000 65.314909
997.000000 68.090243
998.000000 68.080219
999.000000 66.963490
1000.000000 65.947972
1001.000000 64.534660
1002.000000 65.956235
1003.000000 68.088418
1004.000000 69.564653
1005.000000 70.819501
1006.000000 69.947856
1007.000000 69.413393
1008.000000 66.697876
1009.000000 67.681600
1010.000000 70.368285
1011.000000 67.360576
1012.000000 71.236694
1013.000000 72.847198
1014.000000 70.388934
1015.000000 72.237066
1016.000000 71.424272
1017.000000 73.209140
1018.000000 77.919912
1019.000000 80.215779
1020.000000 74.996188
1021.000000 74.707041
1022.000000 81.398235
1023.000000 77.063521
1024.000000 71.512655
1025.000000 72.845467
1026.000000 78.527995
1027.000000 79.918467
1028.000000 80.717994
1029.000000 77.722125
1030.000000 73.662064
1031.000000 76.851795
1032.000000 83.868753
1033.000000 84.470039
1034.000000 77.862755
1035.000000 81.521789
1036.000000 87.821764
1037.000000 84.813457
1038.000000 81.148964
1039.000000 79.936717
1040.000000 78.053547
1041.000000 78.989249
1042.000000 76.318384
1043.000000 77.832443
1044.000000 83.484745
1045.000000 84.175360
1046.000000 82.467921
1047.000000 81.513669
1048.000000 83.620221
1049.000000 78.285941
1050.000000 76.433801
1051.000000 78.010588
1052.000000 77.280516
1053.000000 80.761404
1054.000000 77.395883
1055.000000 76.184805
1056.000000 79.081876
1057.000000 76.278295
1058.000000 77.363670
1059.000000 87.539287
1060.000000 93.509173
1061.000000 87.435796
1062.000000 74.326117
1063.000000 71.737019
1064.000000 79.689789
1065.000000 84.777898
1066.000000 87.141748
1067.000000 81.650995
1068.000000 79.865838
1069.000000 78.871289
1070.000000 72.392240
1071.000000 68.556098
1072.000000 69.467271
1073.000000 71.798198
1074.000000 79.196763
1075.000000 79.476297
1076.000000 73.764695
1077.000000 74.803201
1078.000000 75.592375
1079.000000 74.995872
1080.000000 75.051602
1081.000000 86.276946
1082.000000 94.558913
1083.000000 84.634698
1084.000000 78.243452
1085.000000 70.360429
1086.000000 63.753550
1087.000000 68.085567
1088.000000 65.099466
1089.000000 51.001175
1090.000000 46.498887
1091.000000 48.432721
1092.000000 52.846350
1093.000000 62.627254
1094.000000 60.888812
1095.000000 59.138886
1096.000000 65.325741
1097.000000 75.567796
1098.000000 80.704423
1099.000000 77.725694
1100.000000 76.869762
